Theta [deg.]  Phi   [deg.]  Abs(E   )[dB(V/m)]   Abs(Theta)[dB(V/m)]  Phase(Theta)[deg.]  Abs(Phi  )[dB(V/m)]  Phase(Phi  )[deg.]  Abs(Rad. )[dB(V/m)]  Phase(Rad. )[deg.]  Ax.Ratio[dB    ]    
--------------------------------------------------------------------------------------------------------------------------------------------------------------------------------------------------
   0.000           0.000            5.492e+01          -2.000e+02             139.608           5.492e+01             319.313          -2.000e+02              69.930           4.000e+01     
   1.000           0.000            5.490e+01          -2.000e+02             154.768           5.490e+01             319.294          -2.000e+02              16.544           4.000e+01     
   2.000           0.000            5.484e+01          -2.000e+02             139.841           5.484e+01             319.238          -2.000e+02             282.434           4.000e+01     
   3.000           0.000            5.474e+01          -2.000e+02             198.322           5.474e+01             319.144          -2.000e+02             281.314           4.000e+01     
   4.000           0.000            5.460e+01          -2.000e+02             226.260           5.460e+01             319.011          -2.000e+02             292.798           4.000e+01     
   5.000           0.000            5.443e+01          -2.000e+02             302.053           5.443e+01             318.840          -2.000e+02             267.238           4.000e+01     
   6.000           0.000            5.422e+01          -2.000e+02             275.983           5.422e+01             318.629          -2.000e+02              66.392           4.000e+01     
   7.000           0.000            5.396e+01          -2.000e+02             196.013           5.396e+01             318.379          -2.000e+02             108.006           4.000e+01     
   8.000           0.000            5.367e+01          -2.000e+02             159.399           5.367e+01             318.087          -2.000e+02             254.131           4.000e+01     
   9.000           0.000            5.334e+01          -2.000e+02              61.897           5.334e+01             317.753          -2.000e+02             282.076           4.000e+01     
  10.000           0.000            5.297e+01          -2.000e+02              64.158           5.297e+01             317.376          -2.000e+02             258.980           4.000e+01     
  11.000           0.000            5.256e+01          -2.000e+02             286.126           5.256e+01             316.955          -2.000e+02             310.363           4.000e+01     
  12.000           0.000            5.211e+01          -2.000e+02              45.574           5.211e+01             316.488          -2.000e+02             307.283           4.000e+01     
  13.000           0.000            5.163e+01          -2.000e+02             231.865           5.163e+01             315.974          -2.000e+02              58.216           4.000e+01     
  14.000           0.000            5.111e+01          -2.000e+02              76.108           5.111e+01             315.411          -2.000e+02             263.010           4.000e+01     
  15.000           0.000            5.055e+01          -2.000e+02             105.119           5.055e+01             314.799          -2.000e+02             278.101           4.000e+01     
  16.000           0.000            4.995e+01          -2.000e+02             172.860           4.995e+01             314.136          -2.000e+02             107.938           4.000e+01     
  17.000           0.000            4.931e+01          -2.000e+02              82.122           4.931e+01             313.420          -2.000e+02              82.222           4.000e+01     
  18.000           0.000            4.864e+01          -2.000e+02             294.915           4.864e+01             312.650          -2.000e+02             330.046           4.000e+01     
  19.000           0.000            4.793e+01          -2.000e+02             268.711           4.793e+01             311.826          -2.000e+02             317.953           4.000e+01     
  20.000           0.000            4.719e+01          -2.000e+02              99.859           4.719e+01             310.946          -2.000e+02             266.567           4.000e+01     
  21.000           0.000            4.642e+01          -2.000e+02             201.331           4.642e+01             310.009          -2.000e+02             189.736           4.000e+01     
  22.000           0.000            4.561e+01          -2.000e+02             292.756           4.561e+01             309.015          -2.000e+02             285.147           4.000e+01     
  23.000           0.000            4.477e+01          -2.000e+02              12.366           4.477e+01             307.962          -2.000e+02             281.916           4.000e+01     
  24.000           0.000            4.390e+01          -2.000e+02             145.542           4.390e+01             306.852          -2.000e+02             154.053           4.000e+01     
  25.000           0.000            4.300e+01          -2.000e+02             211.229           4.300e+01             305.684          -2.000e+02             270.450           4.000e+01     
  26.000           0.000            4.208e+01          -2.000e+02              12.984           4.208e+01             304.457          -2.000e+02             304.040           4.000e+01     
  27.000           0.000            4.113e+01          -2.000e+02             258.633           4.113e+01             303.171          -2.000e+02             283.688           4.000e+01     
  28.000           0.000            4.017e+01          -2.000e+02             230.993           4.017e+01             301.827          -2.000e+02             215.595           4.000e+01     
  29.000           0.000            3.918e+01          -2.000e+02             236.164           3.918e+01             300.422          -2.000e+02             301.805           4.000e+01     
  30.000           0.000            3.819e+01          -2.000e+02             144.618           3.819e+01             298.956          -2.000e+02              68.331           4.000e+01     
  31.000           0.000            3.719e+01          -2.000e+02             245.675           3.719e+01             297.426          -2.000e+02             130.960           4.000e+01     
  32.000           0.000            3.618e+01          -2.000e+02              15.080           3.618e+01             295.827          -2.000e+02              28.105           4.000e+01     
  33.000           0.000            3.517e+01          -2.000e+02             342.966           3.517e+01             294.152          -2.000e+02              16.340           4.000e+01     
  34.000           0.000            3.417e+01          -2.000e+02             204.531           3.417e+01             292.393          -2.000e+02             261.897           4.000e+01     
  35.000           0.000            3.318e+01          -2.000e+02             277.581           3.318e+01             290.539          -2.000e+02              52.808           4.000e+01     
  36.000           0.000            3.221e+01          -2.000e+02              35.124           3.221e+01             288.574          -2.000e+02             288.042           4.000e+01     
  37.000           0.000            3.125e+01          -2.000e+02              77.281           3.125e+01             286.482          -2.000e+02             144.643           4.000e+01     
  38.000           0.000            3.033e+01          -2.000e+02             241.088           3.033e+01             284.243          -2.000e+02             239.932           4.000e+01     
  39.000           0.000            2.943e+01          -2.000e+02             156.124           2.943e+01             281.837          -2.000e+02             285.604           4.000e+01     
  40.000           0.000            2.857e+01          -2.000e+02             315.248           2.857e+01             279.242          -2.000e+02             288.561           4.000e+01     
  41.000           0.000            2.775e+01          -2.000e+02              72.807           2.775e+01             276.437          -2.000e+02             210.277           4.000e+01     
  42.000           0.000            2.696e+01          -2.000e+02             274.231           2.696e+01             273.406          -2.000e+02              46.058           4.000e+01     
  43.000           0.000            2.620e+01          -2.000e+02              98.141           2.620e+01             270.133          -2.000e+02             277.982           4.000e+01     
  44.000           0.000            2.548e+01          -2.000e+02             111.970           2.548e+01             266.609          -2.000e+02              34.743           4.000e+01     
  45.000           0.000            2.480e+01          -2.000e+02             230.521           2.480e+01             262.825          -2.000e+02              76.351           4.000e+01     
  46.000           0.000            2.414e+01          -2.000e+02             331.759           2.414e+01             258.782          -2.000e+02             115.874           4.000e+01     
  47.000           0.000            2.351e+01          -2.000e+02             276.147           2.351e+01             254.481          -2.000e+02             298.626           4.000e+01     
  48.000           0.000            2.291e+01          -2.000e+02             305.395           2.291e+01             249.925          -2.000e+02             115.993           4.000e+01     
  49.000           0.000            2.231e+01          -2.000e+02             144.230           2.231e+01             245.120          -2.000e+02             223.338           4.000e+01     
  50.000           0.000            2.173e+01          -2.000e+02             294.993           2.173e+01             240.071          -2.000e+02              92.310           4.000e+01     
  51.000           0.000            2.116e+01          -2.000e+02              25.778           2.116e+01             234.782          -2.000e+02             197.652           4.000e+01     
  52.000           0.000            2.058e+01          -2.000e+02             177.708           2.058e+01             229.252          -2.000e+02             344.166           4.000e+01     
  53.000           0.000            2.001e+01          -2.000e+02              84.128           2.001e+01             223.479          -2.000e+02              60.286           4.000e+01     
  54.000           0.000            1.942e+01          -2.000e+02              46.017           1.942e+01             217.453          -2.000e+02             219.226           4.000e+01     
  55.000           0.000            1.882e+01          -2.000e+02             110.202           1.882e+01             211.162          -2.000e+02             316.345           4.000e+01     
  56.000           0.000            1.822e+01          -2.000e+02             149.422           1.822e+01             204.588          -2.000e+02              25.244           4.000e+01     
  57.000           0.000            1.759e+01          -2.000e+02              11.256           1.759e+01             197.706          -2.000e+02             201.690           4.000e+01     
  58.000           0.000            1.696e+01          -2.000e+02              19.976           1.696e+01             190.490          -2.000e+02             179.416           4.000e+01     
  59.000           0.000            1.632e+01          -2.000e+02             280.547           1.632e+01             182.912          -2.000e+02             225.996           4.000e+01     
  60.000           0.000            1.567e+01          -2.000e+02              30.885           1.567e+01             174.949          -2.000e+02             201.297           4.000e+01     
  61.000           0.000            1.502e+01          -2.000e+02              19.719           1.502e+01             166.580          -2.000e+02             189.236           4.000e+01     
  62.000           0.000            1.439e+01          -2.000e+02              49.880           1.439e+01             157.805          -2.000e+02             232.586           4.000e+01     
  63.000           0.000            1.378e+01          -2.000e+02              38.701           1.378e+01             148.642          -2.000e+02             190.476           4.000e+01     
  64.000           0.000            1.321e+01          -2.000e+02              12.690           1.321e+01             139.139          -2.000e+02             222.071           4.000e+01     
  65.000           0.000            1.269e+01          -2.000e+02              17.829           1.269e+01             129.375          -2.000e+02             138.068           4.000e+01     
  66.000           0.000            1.222e+01          -2.000e+02             348.532           1.222e+01             119.458          -2.000e+02             166.025           4.000e+01     
  67.000           0.000            1.181e+01          -2.000e+02              64.658           1.181e+01             109.513          -2.000e+02             277.545           4.000e+01     
  68.000           0.000            1.144e+01          -2.000e+02             111.917           1.144e+01              99.662          -2.000e+02             284.163           4.000e+01     
  69.000           0.000            1.112e+01          -2.000e+02             326.159           1.112e+01              90.015          -2.000e+02             131.477           4.000e+01     
  70.000           0.000            1.081e+01          -2.000e+02             193.554           1.081e+01              80.647          -2.000e+02              50.432           4.000e+01     
  71.000           0.000            1.051e+01          -2.000e+02              90.443           1.051e+01              71.600          -2.000e+02             274.489           4.000e+01     
  72.000           0.000            1.020e+01          -2.000e+02             100.596           1.020e+01              62.880          -2.000e+02             292.093           4.000e+01     
  73.000           0.000            9.851e+00          -2.000e+02             358.527           9.851e+00              54.460          -2.000e+02             355.311           4.000e+01     
  74.000           0.000            9.456e+00          -2.000e+02              77.679           9.456e+00              46.289          -2.000e+02             234.721           4.000e+01     
  75.000           0.000            8.998e+00          -2.000e+02             258.303           8.998e+00              38.296          -2.000e+02              87.240           4.000e+01     
  76.000           0.000            8.466e+00          -2.000e+02             136.886           8.466e+00              30.391          -2.000e+02             291.437           4.000e+01     
  77.000           0.000            7.848e+00          -2.000e+02             190.299           7.848e+00              22.463          -2.000e+02               1.969           4.000e+01     
  78.000           0.000            7.136e+00          -2.000e+02              79.745           7.136e+00              14.379          -2.000e+02              50.778           4.000e+01     
  79.000           0.000            6.325e+00          -2.000e+02             347.363           6.325e+00               5.973          -2.000e+02             184.678           4.000e+01     
  80.000           0.000            5.412e+00          -2.000e+02             132.916           5.412e+00             357.039          -2.000e+02             299.458           4.000e+01     
  81.000           0.000            4.405e+00          -2.000e+02              55.895           4.405e+00             347.318          -2.000e+02             309.889           4.000e+01     
  82.000           0.000            3.325e+00          -2.000e+02             348.343           3.325e+00             336.499          -2.000e+02             146.457           4.000e+01     
  83.000           0.000            2.220e+00          -2.000e+02             132.732           2.220e+00             324.249          -2.000e+02             185.355           4.000e+01     
  84.000           0.000            1.178e+00          -2.000e+02             205.014           1.178e+00             310.318          -2.000e+02             158.113           4.000e+01     
  85.000           0.000            3.212e-01          -2.000e+02             176.602           3.212e-01             294.771          -2.000e+02             350.067           4.000e+01     
  86.000           0.000           -2.263e-01          -2.000e+02               0.877          -2.263e-01             278.218          -2.000e+02              22.352           4.000e+01     
  87.000           0.000           -4.137e-01          -2.000e+02              75.834          -4.137e-01             261.767          -2.000e+02             290.554           4.000e+01     
  88.000           0.000           -3.027e-01          -2.000e+02             222.509          -3.027e-01             246.508          -2.000e+02             192.808           4.000e+01     
  89.000           0.000           -2.451e-02          -2.000e+02              14.405          -2.451e-02             233.023          -2.000e+02              53.562           4.000e+01     
  90.000           0.000            2.922e-01          -2.000e+02             217.801           2.922e-01             221.347          -2.000e+02             324.615           4.000e+01     
  91.000           0.000            5.559e-01          -2.000e+02              34.640           5.559e-01             211.222          -2.000e+02              16.816           4.000e+01     
  92.000           0.000            7.119e-01          -2.000e+02             215.783           7.119e-01             202.303          -2.000e+02             210.375           4.000e+01     
  93.000           0.000            7.292e-01          -2.000e+02              72.346           7.292e-01             194.268          -2.000e+02             185.127           4.000e+01     
  94.000           0.000            5.896e-01          -2.000e+02             283.267           5.896e-01             186.838          -2.000e+02             266.153           4.000e+01     
  95.000           0.000            2.800e-01          -2.000e+02             232.336           2.800e-01             179.771          -2.000e+02             346.840           4.000e+01     
  96.000           0.000           -2.122e-01          -2.000e+02             339.612          -2.122e-01             172.837          -2.000e+02              50.245           4.000e+01     
  97.000           0.000           -9.016e-01          -2.000e+02              86.341          -9.016e-01             165.796          -2.000e+02             308.016           4.000e+01     
  98.000           0.000           -1.806e+00          -2.000e+02              42.741          -1.806e+00             158.353          -2.000e+02              95.554           4.000e+01     
  99.000           0.000           -2.948e+00          -2.000e+02              76.201          -2.948e+00             150.097          -2.000e+02              59.760           4.000e+01     
 100.000           0.000           -4.345e+00          -2.000e+02             113.686          -4.345e+00             140.394          -2.000e+02             184.807           4.000e+01     
 101.000           0.000           -5.990e+00          -2.000e+02             315.336          -5.990e+00             128.211          -2.000e+02              73.610           4.000e+01     
 102.000           0.000           -7.770e+00          -2.000e+02              23.925          -7.770e+00             111.941          -2.000e+02             278.204           4.000e+01     
 103.000           0.000           -9.289e+00          -2.000e+02             313.356          -9.289e+00              89.952          -2.000e+02              31.092           4.000e+01     
 104.000           0.000           -9.823e+00          -2.000e+02             296.407          -9.823e+00              63.523          -2.000e+02             124.259           4.000e+01     
 105.000           0.000           -9.094e+00          -2.000e+02              77.844          -9.094e+00              38.697          -2.000e+02             238.676           4.000e+01     
 106.000           0.000           -7.722e+00          -2.000e+02             105.210          -7.722e+00              19.672          -2.000e+02              91.217           4.000e+01     
 107.000           0.000           -6.315e+00          -2.000e+02             224.763          -6.315e+00               5.882          -2.000e+02             218.081           4.000e+01     
 108.000           0.000           -5.111e+00          -2.000e+02             332.784          -5.111e+00             355.539          -2.000e+02             326.277           4.000e+01     
 109.000           0.000           -4.156e+00          -2.000e+02             230.624          -4.156e+00             347.332          -2.000e+02              27.157           4.000e+01     
 110.000           0.000           -3.440e+00          -2.000e+02             205.483          -3.440e+00             340.472          -2.000e+02              25.291           4.000e+01     
 111.000           0.000           -2.938e+00          -2.000e+02             165.032          -2.938e+00             334.493          -2.000e+02             110.585           4.000e+01     
 112.000           0.000           -2.629e+00          -2.000e+02             148.374          -2.629e+00             329.121          -2.000e+02              34.083           4.000e+01     
 113.000           0.000           -2.495e+00          -2.000e+02             158.661          -2.495e+00             324.189          -2.000e+02             241.178           4.000e+01     
 114.000           0.000           -2.523e+00          -2.000e+02             170.965          -2.523e+00             319.603          -2.000e+02             233.627           4.000e+01     
 115.000           0.000           -2.704e+00          -2.000e+02             329.181          -2.704e+00             315.320          -2.000e+02             342.840           4.000e+01     
 116.000           0.000           -3.033e+00          -2.000e+02             294.497          -3.033e+00             311.344          -2.000e+02             244.406           4.000e+01     
 117.000           0.000           -3.508e+00          -2.000e+02             260.636          -3.508e+00             307.730          -2.000e+02              70.101           4.000e+01     
 118.000           0.000           -4.132e+00          -2.000e+02             125.616          -4.132e+00             304.592          -2.000e+02             330.025           4.000e+01     
 119.000           0.000           -4.910e+00          -2.000e+02              93.444          -4.910e+00             302.133          -2.000e+02             265.173           4.000e+01     
 120.000           0.000           -5.846e+00          -2.000e+02              33.080          -5.846e+00             300.692          -2.000e+02             263.782           4.000e+01     
 121.000           0.000           -6.937e+00          -2.000e+02              94.862          -6.937e+00             300.818          -2.000e+02             296.433           4.000e+01     
 122.000           0.000           -8.146e+00          -2.000e+02              70.351          -8.146e+00             303.369          -2.000e+02              85.595           4.000e+01     
 123.000           0.000           -9.343e+00          -2.000e+02              73.060          -9.343e+00             309.514          -2.000e+02              52.105           4.000e+01     
 124.000           0.000           -1.020e+01          -2.000e+02             283.979          -1.020e+01             320.137          -2.000e+02             292.041           4.000e+01     
 125.000           0.000           -1.021e+01          -2.000e+02             272.456          -1.021e+01             333.989          -2.000e+02             205.632           4.000e+01     
 126.000           0.000           -9.213e+00          -2.000e+02             192.552          -9.213e+00             347.011          -2.000e+02             326.859           4.000e+01     
 127.000           0.000           -7.572e+00          -2.000e+02              88.230          -7.572e+00             356.037          -2.000e+02             157.274           4.000e+01     
 128.000           0.000           -5.746e+00          -2.000e+02             352.928          -5.746e+00               0.920          -2.000e+02             155.850           4.000e+01     
 129.000           0.000           -3.972e+00          -2.000e+02             307.565          -3.972e+00               2.791          -2.000e+02             272.746           4.000e+01     
 130.000           0.000           -2.330e+00          -2.000e+02             193.706          -2.330e+00               2.699          -2.000e+02             324.545           4.000e+01     
 131.000           0.000           -8.335e-01          -2.000e+02             327.778          -8.335e-01               1.351          -2.000e+02             167.578           4.000e+01     
 132.000           0.000            5.255e-01          -2.000e+02             180.271           5.255e-01             359.189          -2.000e+02             139.115           4.000e+01     
 133.000           0.000            1.761e+00          -2.000e+02             339.427           1.761e+00             356.484          -2.000e+02             189.858           4.000e+01     
 134.000           0.000            2.887e+00          -2.000e+02             127.159           2.887e+00             353.402          -2.000e+02             139.870           4.000e+01     
 135.000           0.000            3.916e+00          -2.000e+02              97.674           3.916e+00             350.045          -2.000e+02             252.852           4.000e+01     
 136.000           0.000            4.860e+00          -2.000e+02             226.116           4.860e+00             346.474          -2.000e+02               8.124           4.000e+01     
 137.000           0.000            5.728e+00          -2.000e+02             216.443           5.728e+00             342.725          -2.000e+02             338.810           4.000e+01     
 138.000           0.000            6.530e+00          -2.000e+02             349.588           6.530e+00             338.819          -2.000e+02             208.049           4.000e+01     
 139.000           0.000            7.276e+00          -2.000e+02             328.616           7.276e+00             334.768          -2.000e+02             164.270           4.000e+01     
 140.000           0.000            7.974e+00          -2.000e+02              49.714           7.974e+00             330.577          -2.000e+02             121.284           4.000e+01     
 141.000           0.000            8.634e+00          -2.000e+02              20.716           8.634e+00             326.256          -2.000e+02             172.222           4.000e+01     
 142.000           0.000            9.263e+00          -2.000e+02             128.172           9.263e+00             321.813          -2.000e+02             330.806           4.000e+01     
 143.000           0.000            9.870e+00          -2.000e+02             345.462           9.870e+00             317.264          -2.000e+02               8.809           4.000e+01     
 144.000           0.000            1.046e+01          -2.000e+02             294.331           1.046e+01             312.629          -2.000e+02             190.246           4.000e+01     
 145.000           0.000            1.105e+01          -2.000e+02             238.869           1.105e+01             307.938          -2.000e+02             165.325           4.000e+01     
 146.000           0.000            1.164e+01          -2.000e+02             322.704           1.164e+01             303.225          -2.000e+02             229.587           4.000e+01     
 147.000           0.000            1.223e+01          -2.000e+02              17.518           1.223e+01             298.531          -2.000e+02             222.929           4.000e+01     
 148.000           0.000            1.283e+01          -2.000e+02               1.881           1.283e+01             293.900          -2.000e+02              79.659           4.000e+01     
 149.000           0.000            1.343e+01          -2.000e+02             179.723           1.343e+01             289.377          -2.000e+02              15.402           4.000e+01     
 150.000           0.000            1.405e+01          -2.000e+02             127.658           1.405e+01             285.003          -2.000e+02             347.970           4.000e+01     
 151.000           0.000            1.467e+01          -2.000e+02             195.875           1.467e+01             280.813          -2.000e+02             335.463           4.000e+01     
 152.000           0.000            1.529e+01          -2.000e+02               0.659           1.529e+01             276.836          -2.000e+02             280.471           4.000e+01     
 153.000           0.000            1.591e+01          -2.000e+02              84.738           1.591e+01             273.093          -2.000e+02             344.783           4.000e+01     
 154.000           0.000            1.653e+01          -2.000e+02             322.253           1.653e+01             269.596          -2.000e+02             287.179           4.000e+01     
 155.000           0.000            1.713e+01          -2.000e+02              34.266           1.713e+01             266.351          -2.000e+02             295.429           4.000e+01     
 156.000           0.000            1.773e+01          -2.000e+02              51.754           1.773e+01             263.356          -2.000e+02             242.683           4.000e+01     
 157.000           0.000            1.831e+01          -2.000e+02              42.551           1.831e+01             260.606          -2.000e+02              53.018           4.000e+01     
 158.000           0.000            1.887e+01          -2.000e+02             276.519           1.887e+01             258.091          -2.000e+02              47.265           4.000e+01     
 159.000           0.000            1.941e+01          -2.000e+02             284.201           1.941e+01             255.800          -2.000e+02             239.588           4.000e+01     
 160.000           0.000            1.993e+01          -2.000e+02             184.825           1.993e+01             253.719          -2.000e+02             354.392           4.000e+01     
 161.000           0.000            2.042e+01          -2.000e+02             215.134           2.042e+01             251.834          -2.000e+02              88.009           4.000e+01     
 162.000           0.000            2.089e+01          -2.000e+02             262.898           2.089e+01             250.131          -2.000e+02              19.551           4.000e+01     
 163.000           0.000            2.133e+01          -2.000e+02              52.140           2.133e+01             248.596          -2.000e+02             252.150           4.000e+01     
 164.000           0.000            2.174e+01          -2.000e+02              67.897           2.174e+01             247.216          -2.000e+02             183.115           4.000e+01     
 165.000           0.000            2.213e+01          -2.000e+02             257.224           2.213e+01             245.979          -2.000e+02             106.896           4.000e+01     
 166.000           0.000            2.249e+01          -2.000e+02             149.588           2.249e+01             244.873          -2.000e+02             332.933           4.000e+01     
 167.000           0.000            2.282e+01          -2.000e+02             336.813           2.282e+01             243.887          -2.000e+02             218.222           4.000e+01     
 168.000           0.000            2.313e+01          -2.000e+02             219.546           2.313e+01             243.011          -2.000e+02             146.148           4.000e+01     
 169.000           0.000            2.341e+01          -2.000e+02             277.979           2.341e+01             242.236          -2.000e+02             259.490           4.000e+01     
 170.000           0.000            2.367e+01          -2.000e+02             176.727           2.367e+01             241.554          -2.000e+02             130.810           4.000e+01     
 171.000           0.000            2.390e+01          -2.000e+02             246.613           2.390e+01             240.959          -2.000e+02             158.849           4.000e+01     
 172.000           0.000            2.411e+01          -2.000e+02             180.717           2.411e+01             240.442          -2.000e+02             199.155           4.000e+01     
 173.000           0.000            2.429e+01          -2.000e+02             182.760           2.429e+01             240.000          -2.000e+02             110.392           4.000e+01     
 174.000           0.000            2.444e+01          -2.000e+02             300.122           2.444e+01             239.626          -2.000e+02             286.876           4.000e+01     
 175.000           0.000            2.457e+01          -2.000e+02              64.318           2.457e+01             239.317          -2.000e+02              25.371           4.000e+01     
 176.000           0.000            2.468e+01          -2.000e+02             244.103           2.468e+01             239.068          -2.000e+02             243.353           4.000e+01     
 177.000           0.000            2.476e+01          -2.000e+02              40.948           2.476e+01             238.878          -2.000e+02             299.668           4.000e+01     
 178.000           0.000            2.482e+01          -2.000e+02             104.034           2.482e+01             238.744          -2.000e+02              90.347           4.000e+01     
 179.000           0.000            2.486e+01          -2.000e+02             206.491           2.486e+01             238.664          -2.000e+02             174.942           4.000e+01     
 180.000           0.000            2.487e+01          -2.000e+02             183.155           2.487e+01             238.638          -2.000e+02             351.984           4.000e+01     
 179.000         180.000            2.486e+01          -2.000e+02              75.403           2.486e+01              58.664          -2.000e+02             303.044           4.000e+01     
 178.000         180.000            2.482e+01          -2.000e+02             358.350           2.482e+01              58.744          -2.000e+02             303.649           4.000e+01     
 177.000         180.000            2.476e+01          -2.000e+02             203.207           2.476e+01              58.878          -2.000e+02             129.475           4.000e+01     
 176.000         180.000            2.468e+01          -2.000e+02              63.088           2.468e+01              59.068          -2.000e+02              98.635           4.000e+01     
 175.000         180.000            2.457e+01          -2.000e+02             249.842           2.457e+01              59.317          -2.000e+02             328.593           4.000e+01     
 174.000         180.000            2.444e+01          -2.000e+02             114.218           2.444e+01              59.626          -2.000e+02              52.817           4.000e+01     
 173.000         180.000            2.429e+01          -2.000e+02               4.333           2.429e+01              60.000          -2.000e+02             294.957           4.000e+01     
 172.000         180.000            2.411e+01          -2.000e+02              18.573           2.411e+01              60.442          -2.000e+02              79.170           4.000e+01     
 171.000         180.000            2.390e+01          -2.000e+02              69.545           2.390e+01              60.959          -2.000e+02             330.986           4.000e+01     
 170.000         180.000            2.367e+01          -2.000e+02               3.805           2.367e+01              61.554          -2.000e+02             259.018           4.000e+01     
 169.000         180.000            2.341e+01          -2.000e+02              82.450           2.341e+01              62.236          -2.000e+02             120.376           4.000e+01     
 168.000         180.000            2.313e+01          -2.000e+02             117.191           2.313e+01              63.011          -2.000e+02             236.317           4.000e+01     
 167.000         180.000            2.282e+01          -2.000e+02             169.575           2.282e+01              63.887          -2.000e+02              57.092           4.000e+01     
 166.000         180.000            2.249e+01          -2.000e+02             320.660           2.249e+01              64.873          -2.000e+02             175.371           4.000e+01     
 165.000         180.000            2.213e+01          -2.000e+02              87.987           2.213e+01              65.979          -2.000e+02             244.319           4.000e+01     
 164.000         180.000            2.174e+01          -2.000e+02             235.888           2.174e+01              67.216          -2.000e+02             237.481           4.000e+01     
 163.000         180.000            2.133e+01          -2.000e+02             313.600           2.133e+01              68.596          -2.000e+02              18.031           4.000e+01     
 162.000         180.000            2.089e+01          -2.000e+02              36.978           2.089e+01              70.131          -2.000e+02             151.716           4.000e+01     
 161.000         180.000            2.042e+01          -2.000e+02             336.853           2.042e+01              71.834          -2.000e+02             220.420           4.000e+01     
 160.000         180.000            1.993e+01          -2.000e+02               6.849           1.993e+01              73.719          -2.000e+02             173.067           4.000e+01     
 159.000         180.000            1.941e+01          -2.000e+02             115.455           1.941e+01              75.800          -2.000e+02              96.606           4.000e+01     
 158.000         180.000            1.887e+01          -2.000e+02              97.168           1.887e+01              78.091          -2.000e+02             263.855           4.000e+01     
 157.000         180.000            1.831e+01          -2.000e+02             205.357           1.831e+01              80.606          -2.000e+02             211.987           4.000e+01     
 156.000         180.000            1.773e+01          -2.000e+02             197.344           1.773e+01              83.356          -2.000e+02              67.966           4.000e+01     
 155.000         180.000            1.713e+01          -2.000e+02             195.034           1.713e+01              86.351          -2.000e+02             119.341           4.000e+01     
 154.000         180.000            1.653e+01          -2.000e+02             137.308           1.653e+01              89.596          -2.000e+02             151.319           4.000e+01     
 153.000         180.000            1.591e+01          -2.000e+02             287.731           1.591e+01              93.093          -2.000e+02             105.399           4.000e+01     
 152.000         180.000            1.529e+01          -2.000e+02             144.029           1.529e+01              96.836          -2.000e+02             174.126           4.000e+01     
 151.000         180.000            1.467e+01          -2.000e+02              40.213           1.467e+01             100.813          -2.000e+02             170.935           4.000e+01     
 150.000         180.000            1.405e+01          -2.000e+02             309.502           1.405e+01             105.003          -2.000e+02             188.407           4.000e+01     
 149.000         180.000            1.343e+01          -2.000e+02              99.329           1.343e+01             109.377          -2.000e+02             179.025           4.000e+01     
 148.000         180.000            1.283e+01          -2.000e+02             141.636           1.283e+01             113.900          -2.000e+02             297.715           4.000e+01     
 147.000         180.000            1.223e+01          -2.000e+02             215.665           1.223e+01             118.531          -2.000e+02              37.468           4.000e+01     
 146.000         180.000            1.164e+01          -2.000e+02             152.938           1.164e+01             123.225          -2.000e+02              91.185           4.000e+01     
 145.000         180.000            1.105e+01          -2.000e+02             123.774           1.105e+01             127.938          -2.000e+02             335.169           4.000e+01     
 144.000         180.000            1.046e+01          -2.000e+02             127.322           1.046e+01             132.629          -2.000e+02              47.384           4.000e+01     
 143.000         180.000            9.870e+00          -2.000e+02             258.822           9.870e+00             137.264          -2.000e+02             173.673           4.000e+01     
 142.000         180.000            9.263e+00          -2.000e+02             238.509           9.263e+00             141.813          -2.000e+02             353.342           4.000e+01     
 141.000         180.000            8.634e+00          -2.000e+02             216.202           8.634e+00             146.256          -2.000e+02              48.488           4.000e+01     
 140.000         180.000            7.974e+00          -2.000e+02             183.860           7.974e+00             150.577          -2.000e+02             117.937           4.000e+01     
 139.000         180.000            7.276e+00          -2.000e+02             211.054           7.276e+00             154.768          -2.000e+02             329.002           4.000e+01     
 138.000         180.000            6.530e+00          -2.000e+02             265.975           6.530e+00             158.819          -2.000e+02             356.896           4.000e+01     
 137.000         180.000            5.728e+00          -2.000e+02             352.443           5.728e+00             162.725          -2.000e+02             162.293           4.000e+01     
 136.000         180.000            4.860e+00          -2.000e+02              70.133           4.860e+00             166.474          -2.000e+02             241.699           4.000e+01     
 135.000         180.000            3.916e+00          -2.000e+02             255.881           3.916e+00             170.045          -2.000e+02             119.856           4.000e+01     
 134.000         180.000            2.887e+00          -2.000e+02             288.396           2.887e+00             173.402          -2.000e+02             311.083           4.000e+01     
 133.000         180.000            1.761e+00          -2.000e+02             191.460           1.761e+00             176.484          -2.000e+02             351.277           4.000e+01     
 132.000         180.000            5.255e-01          -2.000e+02             296.331           5.255e-01             179.189          -2.000e+02             351.792           4.000e+01     
 131.000         180.000           -8.335e-01          -2.000e+02             140.042          -8.335e-01             181.351          -2.000e+02             358.778           4.000e+01     
 130.000         180.000           -2.330e+00          -2.000e+02              37.078          -2.330e+00             182.699          -2.000e+02             102.263           4.000e+01     
 129.000         180.000           -3.972e+00          -2.000e+02             117.254          -3.972e+00             182.791          -2.000e+02             106.660           4.000e+01     
 128.000         180.000           -5.746e+00          -2.000e+02             232.578          -5.746e+00             180.920          -2.000e+02             230.597           4.000e+01     
 127.000         180.000           -7.572e+00          -2.000e+02             237.983          -7.572e+00             176.037          -2.000e+02             341.526           4.000e+01     
 126.000         180.000           -9.213e+00          -2.000e+02               9.336          -9.213e+00             167.011          -2.000e+02              41.292           4.000e+01     
 125.000         180.000           -1.021e+01          -2.000e+02              91.621          -1.021e+01             153.989          -2.000e+02             157.576           4.000e+01     
 124.000         180.000           -1.020e+01          -2.000e+02              80.296          -1.020e+01             140.137          -2.000e+02              11.572           4.000e+01     
 123.000         180.000           -9.343e+00          -2.000e+02             120.234          -9.343e+00             129.514          -2.000e+02             161.811           4.000e+01     
 122.000         180.000           -8.146e+00          -2.000e+02             190.820          -8.146e+00             123.369          -2.000e+02             323.784           4.000e+01     
 121.000         180.000           -6.937e+00          -2.000e+02             326.536          -6.937e+00             120.818          -2.000e+02             302.480           4.000e+01     
 120.000         180.000           -5.846e+00          -2.000e+02             182.603          -5.846e+00             120.692          -2.000e+02              76.984           4.000e+01     
 119.000         180.000           -4.910e+00          -2.000e+02             247.987          -4.910e+00             122.133          -2.000e+02              65.157           4.000e+01     
 118.000         180.000           -4.132e+00          -2.000e+02             221.020          -4.132e+00             124.592          -2.000e+02             196.703           4.000e+01     
 117.000         180.000           -3.508e+00          -2.000e+02              61.916          -3.508e+00             127.730          -2.000e+02             231.865           4.000e+01     
 116.000         180.000           -3.033e+00          -2.000e+02              95.682          -3.033e+00             131.344          -2.000e+02             102.344           4.000e+01     
 115.000         180.000           -2.704e+00          -2.000e+02             151.678          -2.704e+00             135.320          -2.000e+02             159.249           4.000e+01     
 114.000         180.000           -2.523e+00          -2.000e+02               3.797          -2.523e+00             139.603          -2.000e+02              65.847           4.000e+01     
 113.000         180.000           -2.495e+00          -2.000e+02             287.220          -2.495e+00             144.189          -2.000e+02              40.338           4.000e+01     
 112.000         180.000           -2.629e+00          -2.000e+02              96.982          -2.629e+00             149.121          -2.000e+02             136.713           4.000e+01     
 111.000         180.000           -2.938e+00          -2.000e+02             330.975          -2.938e+00             154.493          -2.000e+02             271.718           4.000e+01     
 110.000         180.000           -3.440e+00          -2.000e+02              10.334          -3.440e+00             160.472          -2.000e+02             201.572           4.000e+01     
 109.000         180.000           -4.156e+00          -2.000e+02              57.082          -4.156e+00             167.332          -2.000e+02             247.712           4.000e+01     
 108.000         180.000           -5.111e+00          -2.000e+02             112.460          -5.111e+00             175.539          -2.000e+02             178.067           4.000e+01     
 107.000         180.000           -6.315e+00          -2.000e+02              60.263          -6.315e+00             185.882          -2.000e+02              50.501           4.000e+01     
 106.000         180.000           -7.722e+00          -2.000e+02             206.921          -7.722e+00             199.672          -2.000e+02             240.993           4.000e+01     
 105.000         180.000           -9.094e+00          -2.000e+02             207.071          -9.094e+00             218.697          -2.000e+02              91.189           4.000e+01     
 104.000         180.000           -9.823e+00          -2.000e+02             152.558          -9.823e+00             243.523          -2.000e+02             312.510           4.000e+01     
 103.000         180.000           -9.289e+00          -2.000e+02             133.509          -9.289e+00             269.952          -2.000e+02             237.415           4.000e+01     
 102.000         180.000           -7.770e+00          -2.000e+02             234.961          -7.770e+00             291.941          -2.000e+02              51.111           4.000e+01     
 101.000         180.000           -5.990e+00          -2.000e+02             107.865          -5.990e+00             308.211          -2.000e+02             257.934           4.000e+01     
 100.000         180.000           -4.345e+00          -2.000e+02             231.199          -4.345e+00             320.394          -2.000e+02               6.669           4.000e+01     
  99.000         180.000           -2.948e+00          -2.000e+02             196.690          -2.948e+00             330.097          -2.000e+02             267.611           4.000e+01     
  98.000         180.000           -1.806e+00          -2.000e+02             291.030          -1.806e+00             338.353          -2.000e+02             298.600           4.000e+01     
  97.000         180.000           -9.016e-01          -2.000e+02             316.541          -9.016e-01             345.796          -2.000e+02             178.852           4.000e+01     
  96.000         180.000           -2.122e-01          -2.000e+02             278.079          -2.122e-01             352.837          -2.000e+02             273.377           4.000e+01     
  95.000         180.000            2.800e-01          -2.000e+02             282.975           2.800e-01             359.771          -2.000e+02             238.928           4.000e+01     
  94.000         180.000            5.896e-01          -2.000e+02              96.614           5.896e-01               6.838          -2.000e+02              27.484           4.000e+01     
  93.000         180.000            7.292e-01          -2.000e+02              98.080           7.292e-01              14.268          -2.000e+02             322.848           4.000e+01     
  92.000         180.000            7.119e-01          -2.000e+02             329.586           7.119e-01              22.303          -2.000e+02              50.490           4.000e+01     
  91.000         180.000            5.559e-01          -2.000e+02             213.641           5.559e-01              31.222          -2.000e+02             217.082           4.000e+01     
  90.000         180.000            2.922e-01          -2.000e+02              57.012           2.922e-01              41.347          -2.000e+02             132.120           4.000e+01     
  89.000         180.000           -2.451e-02          -2.000e+02             172.758          -2.451e-02              53.023          -2.000e+02              27.843           4.000e+01     
  88.000         180.000           -3.027e-01          -2.000e+02              33.191          -3.027e-01              66.508          -2.000e+02              21.923           4.000e+01     
  87.000         180.000           -4.137e-01          -2.000e+02             242.106          -4.137e-01              81.767          -2.000e+02             124.784           4.000e+01     
  86.000         180.000           -2.263e-01          -2.000e+02             340.652          -2.263e-01              98.218          -2.000e+02             202.672           4.000e+01     
  85.000         180.000            3.212e-01          -2.000e+02              18.092           3.212e-01             114.771          -2.000e+02             177.696           4.000e+01     
  84.000         180.000            1.178e+00          -2.000e+02              68.297           1.178e+00             130.318          -2.000e+02             334.641           4.000e+01     
  83.000         180.000            2.220e+00          -2.000e+02              92.124           2.220e+00             144.249          -2.000e+02              19.793           4.000e+01     
  82.000         180.000            3.325e+00          -2.000e+02             187.098           3.325e+00             156.499          -2.000e+02             345.964           4.000e+01     
  81.000         180.000            4.405e+00          -2.000e+02             214.096           4.405e+00             167.318          -2.000e+02             130.084           4.000e+01     
  80.000         180.000            5.412e+00          -2.000e+02             313.872           5.412e+00             177.039          -2.000e+02             136.136           4.000e+01     
  79.000         180.000            6.325e+00          -2.000e+02             182.572           6.325e+00             185.973          -2.000e+02             349.902           4.000e+01     
  78.000         180.000            7.136e+00          -2.000e+02             266.618           7.136e+00             194.379          -2.000e+02             211.492           4.000e+01     
  77.000         180.000            7.848e+00          -2.000e+02              10.765           7.848e+00             202.463          -2.000e+02             205.848           4.000e+01     
  76.000         180.000            8.466e+00          -2.000e+02              46.084           8.466e+00             210.391          -2.000e+02             243.435           4.000e+01     
  75.000         180.000            8.998e+00          -2.000e+02              73.840           8.998e+00             218.296          -2.000e+02             243.880           4.000e+01     
  74.000         180.000            9.456e+00          -2.000e+02             229.080           9.456e+00             226.289          -2.000e+02              45.440           4.000e+01     
  73.000         180.000            9.851e+00          -2.000e+02             102.479           9.851e+00             234.460          -2.000e+02             246.616           4.000e+01     
  72.000         180.000            1.020e+01          -2.000e+02             289.818           1.020e+01             242.880          -2.000e+02              95.155           4.000e+01     
  71.000         180.000            1.051e+01          -2.000e+02             248.530           1.051e+01             251.600          -2.000e+02              61.619           4.000e+01     
  70.000         180.000            1.081e+01          -2.000e+02              45.888           1.081e+01             260.647          -2.000e+02             235.905           4.000e+01     
  69.000         180.000            1.112e+01          -2.000e+02              83.971           1.112e+01             270.015          -2.000e+02             124.836           4.000e+01     
  68.000         180.000            1.144e+01          -2.000e+02             289.938           1.144e+01             279.662          -2.000e+02             105.856           4.000e+01     
  67.000         180.000            1.181e+01          -2.000e+02             269.546           1.181e+01             289.513          -2.000e+02              92.074           4.000e+01     
  66.000         180.000            1.222e+01          -2.000e+02             148.226           1.222e+01             299.458          -2.000e+02             349.523           4.000e+01     
  65.000         180.000            1.269e+01          -2.000e+02             181.638           1.269e+01             309.375          -2.000e+02             326.601           4.000e+01     
  64.000         180.000            1.321e+01          -2.000e+02             188.226           1.321e+01             319.139          -2.000e+02              84.209           4.000e+01     
  63.000         180.000            1.378e+01          -2.000e+02             194.168           1.378e+01             328.642          -2.000e+02             348.611           4.000e+01     
  62.000         180.000            1.439e+01          -2.000e+02             240.107           1.439e+01             337.805          -2.000e+02             134.176           4.000e+01     
  61.000         180.000            1.502e+01          -2.000e+02             180.463           1.502e+01             346.580          -2.000e+02              34.263           4.000e+01     
  60.000         180.000            1.567e+01          -2.000e+02             213.046           1.567e+01             354.949          -2.000e+02             216.488           4.000e+01     
  59.000         180.000            1.632e+01          -2.000e+02              26.198           1.632e+01               2.912          -2.000e+02              95.999           4.000e+01     
  58.000         180.000            1.696e+01          -2.000e+02             198.214           1.696e+01              10.490          -2.000e+02              16.500           4.000e+01     
  57.000         180.000            1.759e+01          -2.000e+02             173.944           1.759e+01              17.706          -2.000e+02               2.584           4.000e+01     
  56.000         180.000            1.822e+01          -2.000e+02             346.019           1.822e+01              24.588          -2.000e+02             212.680           4.000e+01     
  55.000         180.000            1.882e+01          -2.000e+02             300.392           1.882e+01              31.162          -2.000e+02             153.947           4.000e+01     
  54.000         180.000            1.942e+01          -2.000e+02             226.903           1.942e+01              37.453          -2.000e+02             353.735           4.000e+01     
  53.000         180.000            2.001e+01          -2.000e+02             204.839           2.001e+01              43.479          -2.000e+02             349.290           4.000e+01     
  52.000         180.000            2.058e+01          -2.000e+02              12.954           2.058e+01              49.252          -2.000e+02             178.039           4.000e+01     
  51.000         180.000            2.116e+01          -2.000e+02             202.311           2.116e+01              54.782          -2.000e+02              53.461           4.000e+01     
  50.000         180.000            2.173e+01          -2.000e+02             125.289           2.173e+01              60.071          -2.000e+02             262.361           4.000e+01     
  49.000         180.000            2.231e+01          -2.000e+02             318.753           2.231e+01              65.120          -2.000e+02              39.097           4.000e+01     
  48.000         180.000            2.291e+01          -2.000e+02              28.407           2.291e+01              69.925          -2.000e+02             229.840           4.000e+01     
  47.000         180.000            2.351e+01          -2.000e+02             327.221           2.351e+01              74.481          -2.000e+02             246.360           4.000e+01     
  46.000         180.000            2.414e+01          -2.000e+02             148.661           2.414e+01              78.782          -2.000e+02             317.683           4.000e+01     
  45.000         180.000            2.480e+01          -2.000e+02              34.121           2.480e+01              82.825          -2.000e+02             242.635           4.000e+01     
  44.000         180.000            2.548e+01          -2.000e+02             203.947           2.548e+01              86.609          -2.000e+02             229.922           4.000e+01     
  43.000         180.000            2.620e+01          -2.000e+02             267.046           2.620e+01              90.133          -2.000e+02             104.858           4.000e+01     
  42.000         180.000            2.696e+01          -2.000e+02             348.594           2.696e+01              93.406          -2.000e+02             202.277           4.000e+01     
  41.000         180.000            2.775e+01          -2.000e+02             223.906           2.775e+01              96.437          -2.000e+02             357.825           4.000e+01     
  40.000         180.000            2.857e+01          -2.000e+02             186.398           2.857e+01              99.242          -2.000e+02             158.547           4.000e+01     
  39.000         180.000            2.943e+01          -2.000e+02             333.043           2.943e+01             101.837          -2.000e+02              70.904           4.000e+01     
  38.000         180.000            3.033e+01          -2.000e+02             353.785           3.033e+01             104.243          -2.000e+02              73.374           4.000e+01     
  37.000         180.000            3.125e+01          -2.000e+02             214.071           3.125e+01             106.482          -2.000e+02              88.677           4.000e+01     
  36.000         180.000            3.221e+01          -2.000e+02             194.875           3.221e+01             108.574          -2.000e+02              66.782           4.000e+01     
  35.000         180.000            3.318e+01          -2.000e+02              78.797           3.318e+01             110.539          -2.000e+02             276.583           4.000e+01     
  34.000         180.000            3.417e+01          -2.000e+02              62.694           3.417e+01             112.393          -2.000e+02              45.084           4.000e+01     
  33.000         180.000            3.517e+01          -2.000e+02              36.974           3.517e+01             114.152          -2.000e+02             282.527           4.000e+01     
  32.000         180.000            3.618e+01          -2.000e+02              44.007           3.618e+01             115.827          -2.000e+02             356.192           4.000e+01     
  31.000         180.000            3.719e+01          -2.000e+02              54.953           3.719e+01             117.426          -2.000e+02             281.347           4.000e+01     
  30.000         180.000            3.819e+01          -2.000e+02             276.075           3.819e+01             118.956          -2.000e+02             327.889           4.000e+01     
  29.000         180.000            3.918e+01          -2.000e+02              81.593           3.918e+01             120.422          -2.000e+02             171.618           4.000e+01     
  28.000         180.000            4.017e+01          -2.000e+02              46.593           4.017e+01             121.827          -2.000e+02               0.579           4.000e+01     
  27.000         180.000            4.113e+01          -2.000e+02              10.862           4.113e+01             123.171          -2.000e+02             111.086           4.000e+01     
  26.000         180.000            4.208e+01          -2.000e+02             101.370           4.208e+01             124.457          -2.000e+02             233.008           4.000e+01     
  25.000         180.000            4.300e+01          -2.000e+02             346.335           4.300e+01             125.684          -2.000e+02              17.955           4.000e+01     
  24.000         180.000            4.390e+01          -2.000e+02             218.948           4.390e+01             126.852          -2.000e+02             322.432           4.000e+01     
  23.000         180.000            4.477e+01          -2.000e+02             260.767           4.477e+01             127.962          -2.000e+02              31.437           4.000e+01     
  22.000         180.000            4.561e+01          -2.000e+02             326.521           4.561e+01             129.015          -2.000e+02             114.333           4.000e+01     
  21.000         180.000            4.642e+01          -2.000e+02             305.148           4.642e+01             130.009          -2.000e+02             220.357           4.000e+01     
  20.000         180.000            4.719e+01          -2.000e+02             287.984           4.719e+01             130.946          -2.000e+02             343.757           4.000e+01     
  19.000         180.000            4.793e+01          -2.000e+02             286.325           4.793e+01             131.826          -2.000e+02             100.468           4.000e+01     
  18.000         180.000            4.864e+01          -2.000e+02             293.758           4.864e+01             132.650          -2.000e+02              92.746           4.000e+01     
  17.000         180.000            4.931e+01          -2.000e+02             295.956           4.931e+01             133.420          -2.000e+02             263.605           4.000e+01     
  16.000         180.000            4.995e+01          -2.000e+02               4.752           4.995e+01             134.136          -2.000e+02             279.842           4.000e+01     
  15.000         180.000            5.055e+01          -2.000e+02             291.365           5.055e+01             134.799          -2.000e+02             359.287           4.000e+01     
  14.000         180.000            5.111e+01          -2.000e+02             305.309           5.111e+01             135.411          -2.000e+02             352.383           4.000e+01     
  13.000         180.000            5.163e+01          -2.000e+02             349.698           5.163e+01             135.974          -2.000e+02             194.741           4.000e+01     
  12.000         180.000            5.211e+01          -2.000e+02             336.679           5.211e+01             136.488          -2.000e+02             276.497           4.000e+01     
  11.000         180.000            5.256e+01          -2.000e+02             359.148           5.256e+01             136.955          -2.000e+02             297.423           4.000e+01     
  10.000         180.000            5.297e+01          -2.000e+02             302.581           5.297e+01             137.376          -2.000e+02             107.819           4.000e+01     
   9.000         180.000            5.334e+01          -2.000e+02             312.055           5.334e+01             137.753          -2.000e+02             111.813           4.000e+01     
   8.000         180.000            5.367e+01          -2.000e+02             324.503           5.367e+01             138.087          -2.000e+02             239.698           4.000e+01     
   7.000         180.000            5.396e+01          -2.000e+02             330.387           5.396e+01             138.379          -2.000e+02             275.659           4.000e+01     
   6.000         180.000            5.422e+01          -2.000e+02             325.550           5.422e+01             138.629          -2.000e+02             264.298           4.000e+01     
   5.000         180.000            5.443e+01          -2.000e+02             307.309           5.443e+01             138.840          -2.000e+02             324.021           4.000e+01     
   4.000         180.000            5.460e+01          -2.000e+02             321.543           5.460e+01             139.011          -2.000e+02             320.889           4.000e+01     
   3.000         180.000            5.474e+01          -2.000e+02             320.316           5.474e+01             139.144          -2.000e+02             107.447           4.000e+01     
   2.000         180.000            5.484e+01          -2.000e+02             324.150           5.484e+01             139.238          -2.000e+02             291.491           4.000e+01     
   1.000         180.000            5.490e+01          -2.000e+02             319.292           5.490e+01             139.294          -2.000e+02             287.416           4.000e+01     
